T100 WAVELENGTH,T100 POWER,BRISTOL WAVELENGTH,BRISTOL POWER
1465,-0.01,1464.5953,-0.330
1465.1,-0.01,1464.7008,-0.320
1465.2,-0.01,1464.8068,-0.280
1465.3,-0.01,1464.9074,-0.310
1465.4,-0.01,1465.0112,-0.260
1465.5,-0.01,1465.1147,-0.240
1465.6,-0.01,1465.2162,-0.320
1465.7,-0.01,1465.3148,-0.320
1465.8,-0.01,1465.4179,-0.280
1465.9,-0.01,1465.5209,-0.340
1466,-0.01,1465.6233,-0.370
1466.1,-0.01,1465.7191,-0.410
1466.2,-0.01,1465.8194,-0.320
1466.3,-0.01,1465.9231,-0.370
1466.4,-0.01,1466.0261,-0.330
1466.5,-0.01,1466.1226,-0.250
1466.6,-0.01,1466.2250,-0.310
1466.7,0,1466.3239,-0.280
1466.8,-0.01,1466.4250,-0.330
1466.9,-0.01,1466.5222,-0.400
1467,-0.01,1466.6250,-0.340
1467.1,-0.01,1466.7270,-0.330
1467.2,-0.01,1466.8256,-0.340
1467.3,-0.01,1466.9211,-0.330
1467.4,-0.01,1467.0235,-0.310
1467.5,-0.01,1467.1255,-0.330
1467.6,-0.01,1467.2263,-0.370
1467.7,-0.01,1467.3229,-0.360
1467.8,-0.01,1467.4222,-0.270
1467.9,-0.01,1467.5225,-0.260
1468,-0.01,1467.6267,-0.310
1468.1,-0.01,1467.7238,-0.290
1468.2,-0.01,1467.8254,-0.360
1468.3,-0.01,1467.9244,-0.440
1468.4,-0.01,1468.0238,-0.310
1468.5,-0.01,1468.1213,-0.310
1468.6,-0.01,1468.2253,-0.320
1468.7,-0.01,1468.3283,-0.270
1468.8,-0.01,1468.4279,-0.300
1468.9,-0.01,1468.5239,-0.380
1469,-0.01,1468.6246,-0.350
1469.1,-0.01,1468.7278,-0.310
1469.2,-0.01,1468.8294,-0.350
1469.3,-0.01,1468.9268,-0.320
1469.4,-0.01,1469.0280,-0.250
1469.5,-0.01,1469.1274,-0.340
1469.6,-0.01,1469.2286,-0.300
1469.7,-0.01,1469.3270,-0.330
1469.8,-0.01,1469.4299,-0.320
1469.9,-0.01,1469.5298,-0.270
1470,-0.01,1469.6291,-0.350
1470.1,-0.01,1469.7265,-0.320
1470.2,-0.01,1469.8290,-0.310
1470.3,-0.01,1469.9325,-0.340
1470.4,-0.01,1470.0347,-0.360
1470.5,-0.01,1470.1323,-0.330
1470.6,-0.01,1470.2332,-0.340
1470.7,-0.01,1470.3367,-0.310
1470.8,-0.01,1470.4392,-0.270
1470.9,-0.01,1470.5373,-0.300
1471,-0.01,1470.6403,-0.280
1471.1,-0.01,1470.7399,-0.310
1471.2,-0.01,1470.8423,-0.340
1471.3,-0.01,1470.9386,-0.310
1471.4,-0.01,1471.0418,-0.290
1471.5,-0.01,1471.1441,-0.260
1471.6,-0.01,1471.2464,-0.300
1471.7,-0.01,1471.3429,-0.320
1471.8,-0.01,1471.4448,-0.340
1471.9,-0.01,1471.5467,-0.400
1472,-0.01,1471.6470,-0.410
1472.1,-0.01,1471.7449,-0.280
1472.2,-0.01,1471.8436,-0.250
1472.3,-0.01,1471.9460,-0.260
1472.4,-0.01,1472.0480,-0.240
1472.5,-0.01,1472.1465,-0.390
1472.6,-0.01,1472.2484,-0.350
1472.7,-0.01,1472.3479,-0.330
1472.8,-0.01,1472.4464,-0.280
1472.9,-0.01,1472.5456,-0.240
1473,-0.01,1472.6498,-0.280
1473.1,-0.01,1472.7509,-0.290
1473.2,-0.01,1472.8528,-0.380
1473.3,-0.01,1472.9485,-0.310
1473.4,-0.01,1473.0471,-0.270
1473.5,-0.01,1473.1478,-0.260
1473.6,-0.01,1473.2502,-0.250
1473.7,-0.01,1473.3486,-0.370
1473.8,-0.01,1473.4487,-0.320
1473.9,-0.01,1473.5485,-0.320
1474,-0.01,1473.6491,-0.270
1474.1,-0.01,1473.7465,-0.340
1474.2,-0.01,1473.8482,-0.360
1474.3,-0.01,1473.9487,-0.390
1474.4,-0.01,1474.0479,-0.310
1474.5,-0.01,1474.1454,-0.300
1474.6,-0.01,1474.2489,-0.280
1474.7,-0.01,1474.3480,-0.310
1474.8,-0.01,1474.4488,-0.390
1474.9,-0.01,1474.5454,-0.310
1475,-0.01,1474.6457,-0.280
1475.1,-0.01,1474.7478,-0.330
1475.2,-0.01,1474.8473,-0.350
1475.3,-0.01,1474.9492,-0.330
1475.4,0,1475.0480,-0.370
1475.5,-0.01,1475.1473,-0.270
1475.6,-0.01,1475.2448,-0.300
1475.7,-0.01,1475.3465,-0.300
1475.8,-0.01,1475.4499,-0.290
1475.9,-0.01,1475.5484,-0.560
1476,-0.01,1475.6502,-0.400
1476.1,-0.01,1475.7491,-0.330
1476.2,-0.01,1475.8510,-0.340
1476.3,-0.01,1475.9497,-0.320
1476.4,-0.01,1476.0513,-0.260
1476.5,-0.01,1476.1539,-0.390
1476.6,-0.01,1476.2490,-0.290
1476.7,-0.01,1476.3494,-0.340
1476.8,-0.01,1476.4515,-0.340
1476.9,-0.01,1476.5502,-0.380
1477,-0.01,1476.6536,-0.390
1477.1,-0.01,1476.7546,-0.370
1477.2,-0.01,1476.8541,-0.330
1477.3,-0.01,1476.9503,-0.330
1477.4,-0.01,1477.0552,-0.290
1477.5,-0.01,1477.1565,-0.300
1477.6,-0.01,1477.2544,-0.370
1477.7,-0.01,1477.3546,-0.260
1477.8,-0.01,1477.4559,-0.310
1477.9,-0.01,1477.5580,-0.240
1478,-0.01,1477.6555,-0.300
1478.1,-0.01,1477.7576,-0.370
1478.2,-0.01,1477.8598,-0.410
1478.3,-0.01,1477.9552,-0.290
1478.4,-0.01,1478.0574,-0.310
1478.5,-0.01,1478.1604,-0.320
1478.6,-0.01,1478.2623,-0.370
1478.7,-0.01,1478.3595,-0.380
1478.8,-0.01,1478.4608,-0.290
1478.9,-0.01,1478.5616,-0.290
1479,-0.01,1478.6578,-0.290
1479.1,-0.01,1478.7584,-0.380
1479.2,-0.01,1478.8599,-0.370
1479.3,-0.01,1478.9618,-0.320
1479.4,-0.01,1479.0546,-0.280
1479.5,-0.01,1479.1535,-0.440
1479.6,-0.01,1479.2545,-0.330
1479.7,-0.01,1479.3526,-0.290
1479.8,-0.01,1479.4543,-0.310
1479.9,-0.01,1479.5551,-0.340
1480,-0.01,1479.6540,-0.590
1480.1,-0.01,1479.7494,-0.290
1480.2,-0.01,1479.8529,-0.310
1480.3,-0.01,1479.9550,-0.270
1480.4,-0.01,1480.0514,-0.420
1480.5,-0.01,1480.1490,-0.300
1480.6,-0.01,1480.2486,-0.240
1480.7,-0.01,1480.3465,-0.290
1480.8,-0.01,1480.4470,-0.380
1480.9,-0.01,1480.5471,-0.340
1481,-0.01,1480.6464,-0.270
1481.1,-0.01,1480.7408,-0.360
1481.2,-0.01,1480.8417,-0.570
1481.3,-0.01,1480.9434,-0.370
1481.4,-0.01,1481.0388,-0.240
1481.5,-0.01,1481.1369,-0.350
1481.6,-0.01,1481.2328,-0.300
1481.7,-0.01,1481.3314,-0.340
1481.8,-0.01,1481.4306,-0.320
1481.9,-0.01,1481.5328,-0.380
1482,-0.01,1481.6321,-0.340
1482.1,-0.01,1481.7276,-0.220
1482.2,-0.01,1481.8234,-0.360
1482.3,-0.01,1481.9242,-0.330
1482.4,-0.01,1482.0260,-0.250
1482.5,-0.01,1482.1227,-0.270
1482.6,-0.01,1482.2248,-0.320
1482.7,-0.01,1482.3233,-0.570
1482.8,-0.01,1482.4211,-0.280
1482.9,-0.01,1482.5229,-0.270
1483,-0.01,1482.6247,-0.250
1483.1,-0.01,1482.7256,-0.340
1483.2,-0.01,1482.8230,-0.350
1483.3,-0.01,1482.9215,-0.320
1483.4,-0.01,1483.0221,-0.300
1483.5,-0.01,1483.1196,-0.420
1483.6,-0.01,1483.2206,-0.330
1483.7,-0.01,1483.3224,-0.310
1483.8,-0.01,1483.4177,-0.290
1483.9,-0.01,1483.5197,-0.340
1484,-0.01,1483.6225,-0.570
1484.1,-0.01,1483.7236,-0.390
1484.2,-0.01,1483.8217,-0.270
1484.3,-0.01,1483.9202,-0.360
1484.4,-0.01,1484.0185,-0.340
1484.5,-0.01,1484.1129,-0.270
1484.6,-0.01,1484.2132,-0.300
1484.7,-0.01,1484.3148,-0.330
1484.8,-0.01,1484.4159,-0.370
1484.9,-0.01,1484.5124,-0.270
1485,-0.01,1484.6130,-0.360
1485.1,-0.01,1484.7141,-0.360
1485.2,-0.01,1484.8147,-0.400
1485.3,-0.01,1484.9162,-0.270
1485.4,-0.01,1485.0160,-0.250
1485.5,-0.01,1485.1109,-0.440
1485.6,-0.01,1485.2101,-0.340
1485.7,-0.01,1485.3091,-0.320
1485.8,-0.01,1485.4092,-0.300
1485.9,-0.01,1485.5091,-0.380
1486,-0.01,1485.6074,-0.270
1486.1,-0.01,1485.7052,-0.230
1486.2,-0.01,1485.8062,-0.290
1486.3,-0.01,1485.9027,-0.320
1486.4,-0.01,1486.0027,-0.350
1486.5,-0.01,1486.1337,-0.250
1486.6,-0.01,1486.2305,-0.370
1486.7,-0.01,1486.3293,-0.310
1486.8,-0.01,1486.4291,-0.300
1486.9,-0.01,1486.5290,-0.210
1487,-0.01,1486.6273,-0.400
1487.1,-0.01,1486.7204,-0.310
1487.2,-0.01,1486.8190,-0.310
1487.3,-0.01,1486.9191,-0.560
1487.4,-0.01,1487.0186,-0.250
1487.5,-0.01,1487.1169,-0.310
1487.6,-0.01,1487.2162,-0.390
1487.7,-0.01,1487.3159,-0.350
1487.8,-0.01,1487.4167,-0.340
1487.9,-0.01,1487.5207,-0.280
1488,-0.01,1487.6168,-0.330
1488.1,-0.01,1487.7164,-0.330
1488.2,-0.01,1487.8140,-0.260
1488.3,-0.01,1487.9136,-0.280
1488.4,-0.01,1488.0147,-0.350
1488.5,-0.01,1488.1144,-0.320
1488.6,-0.01,1488.2131,-0.210
1488.7,-0.01,1488.3127,-0.340
1488.8,-0.01,1488.4065,-0.290
1488.9,-0.01,1488.5057,-0.280
1489,-0.01,1488.6080,-0.300
1489.1,-0.01,1488.7087,-0.400
1489.2,-0.01,1488.8090,-0.330
1489.3,-0.01,1488.9083,-0.280
1489.4,-0.01,1489.0083,-0.310
1489.5,-0.01,1489.1084,-0.410
1489.6,-0.01,1489.2061,-0.300
1489.7,-0.01,1489.3061,-0.260
1489.8,-0.01,1489.4061,-0.310
1489.9,-0.01,1489.5049,-0.390
1490,-0.01,1489.6061,-0.290
1490.1,-0.01,1489.7080,-0.310
1490.2,-0.01,1489.8107,-0.330
1490.3,-0.01,1489.9116,-0.430
1490.4,-0.01,1490.0099,-0.330
1490.5,-0.01,1490.1060,-0.280
1490.6,-0.01,1490.2066,-0.370
1490.7,-0.01,1490.3087,-0.360
1490.8,-0.01,1490.4090,-0.290
1490.9,-0.01,1490.5089,-0.320
1491,-0.01,1490.6082,-0.370
1491.1,-0.01,1490.7116,-0.360
1491.2,-0.01,1490.8121,-0.280
1491.3,-0.01,1490.9104,-0.300
1491.4,-0.01,1491.0111,-0.350
1491.5,-0.01,1491.1113,-0.400
1491.6,-0.01,1491.2115,-0.290
1491.7,-0.01,1491.3138,-0.270
1491.8,-0.01,1491.4149,-0.330
1491.9,-0.01,1491.5165,-0.400
1492,-0.01,1491.6154,-0.300
1492.1,-0.01,1491.7103,-0.330
1492.2,-0.01,1491.8102,-0.460
1492.3,-0.01,1491.9097,-0.300
1492.4,-0.01,1492.0107,-0.270
1492.5,-0.01,1492.1122,-0.340
1492.6,-0.01,1492.2111,-0.410
1492.7,-0.01,1492.3093,-0.240
1492.8,-0.01,1492.4092,-0.320
1492.9,-0.01,1492.5099,-0.600
1493,-0.01,1492.6081,-0.300
1493.1,-0.01,1492.7091,-0.320
1493.2,-0.01,1492.8086,-0.380
1493.3,0,1492.9078,-0.360
1493.4,-0.01,1493.0424,-0.370
1493.5,-0.01,1493.1440,-0.250
1493.6,-0.01,1493.2440,-0.300
1493.7,-0.01,1493.3424,-0.620
1493.8,-0.01,1493.4394,-0.270
1493.9,-0.01,1493.5404,-0.300
1494,-0.01,1493.6400,-0.410
1494.1,-0.01,1493.7399,-0.330
1494.2,-0.01,1493.8399,-0.290
1494.3,-0.01,1493.9377,-0.330
1494.4,-0.01,1494.0374,-0.350
1494.5,-0.01,1494.1398,-0.350
1494.6,-0.01,1494.2365,-0.380
1494.7,-0.01,1494.3364,-0.440
1494.8,-0.01,1494.4339,-0.270
1494.9,-0.01,1494.5348,-0.310
1495,-0.01,1494.6373,-0.380
1495.1,-0.01,1494.7397,-0.360
1495.2,-0.01,1494.8386,-0.320
1495.3,-0.01,1494.9377,-0.320
1495.4,-0.01,1495.0357,-0.360
1495.5,-0.01,1495.1354,-0.330
1495.6,-0.01,1495.2378,-0.300
1495.7,-0.01,1495.3400,-0.390
1495.8,-0.01,1495.4379,-0.400
1495.9,-0.01,1495.5363,-0.300
1496,-0.01,1495.6364,-0.360
1496.1,-0.01,1495.7373,-0.420
1496.2,-0.01,1495.8387,-0.290
1496.3,-0.01,1495.9385,-0.350
1496.4,-0.01,1496.0393,-0.360
1496.5,-0.01,1496.1381,-0.340
1496.6,-0.01,1496.2382,-0.270
1496.7,-0.01,1496.3392,-0.250
1496.8,-0.01,1496.4405,-0.580
1496.9,-0.01,1496.5420,-0.310
1497,-0.01,1496.6418,-0.300
1497.1,-0.01,1496.7401,-0.400
1497.2,-0.01,1496.8377,-0.300
1497.3,-0.01,1496.9386,-0.350
1497.4,-0.01,1497.0403,-0.330
1497.5,-0.01,1497.1399,-0.410
1497.6,-0.01,1497.2403,-0.330
1497.7,-0.01,1497.3413,-0.360
1497.8,-0.01,1497.4448,-0.390
1497.9,-0.01,1497.5458,-0.370
1498,-0.01,1497.6467,-0.290
1498.1,-0.01,1497.7447,-0.370
1498.2,-0.01,1497.8458,-0.430
1498.3,-0.01,1497.9475,-0.370
1498.4,-0.01,1498.0503,-0.330
1498.5,-0.01,1498.1500,-0.350
1498.6,-0.01,1498.2456,-0.350
1498.7,-0.01,1498.3435,-0.300
1498.8,-0.01,1498.4424,-0.430
1498.9,-0.01,1498.5436,-0.330
1499,-0.01,1498.6435,-0.280
1499.1,-0.01,1498.7434,-0.370
1499.2,-0.01,1498.8399,-0.380
1499.3,-0.01,1498.9389,-0.340
1499.4,-0.01,1499.0390,-0.420
1499.5,-0.01,1499.1397,-0.330
1499.6,-0.01,1499.2396,-0.330
1499.7,-0.01,1499.3410,-0.450
1499.8,-0.01,1499.4390,-0.400
1499.9,-0.01,1499.5372,-0.280
1500,-0.01,1499.6369,-0.350
1500.1,-0.01,1499.7346,-0.350
1500.2,-0.01,1499.8352,-0.330
1500.3,-0.01,1499.9332,-0.380
1500.4,0,1500.0329,-0.300
1500.5,-0.01,1500.1340,-0.330
1500.6,-0.01,1500.2357,-0.330
1500.7,-0.01,1500.3355,-0.390
1500.8,-0.01,1500.4348,-0.310
1500.9,-0.01,1500.5332,-0.360
1501,-0.01,1500.6350,-0.640
1501.1,-0.01,1500.7374,-0.310
1501.2,-0.01,1500.8368,-0.330
1501.3,-0.01,1500.9366,-0.410
1501.4,-0.01,1501.0334,-0.340
1501.5,-0.01,1501.1294,-0.350
1501.6,-0.01,1501.2327,-0.630
1501.7,-0.01,1501.3348,-0.340
1501.8,-0.01,1501.4325,-0.290
1501.9,-0.01,1501.5297,-0.400
1502,-0.01,1501.6274,-0.310
1502.1,-0.01,1501.7284,-0.290
1502.2,-0.01,1501.8316,-0.430
1502.3,-0.01,1501.9321,-0.310
1502.4,-0.01,1502.0319,-0.310
1502.5,-0.01,1502.1307,-0.410
1502.6,-0.01,1502.2319,-0.280
1502.7,-0.01,1502.3326,-0.310
1502.8,-0.01,1502.4331,-0.330
1502.9,-0.01,1502.5291,-0.320
1503,-0.01,1502.6292,-0.290
1503.1,-0.01,1502.7258,-0.310
1503.2,-0.01,1502.8259,-0.290
1503.3,-0.01,1502.9266,-0.300
1503.4,-0.01,1503.0296,-0.390
1503.5,-0.01,1503.1305,-0.340
1503.6,-0.01,1503.2286,-0.290
1503.7,-0.01,1503.3272,-0.590
1503.8,-0.01,1503.4285,-0.280
1503.9,-0.01,1503.5285,-0.340
1504,-0.01,1503.6273,-0.610
1504.1,-0.01,1503.7253,-0.290
1504.2,-0.01,1503.8232,-0.320
1504.3,-0.01,1503.9181,-0.320
1504.4,-0.01,1504.0183,-0.240
1504.5,-0.01,1504.1204,-0.330
1504.6,-0.01,1504.2213,-0.320
1504.7,-0.01,1504.3183,-0.290
1504.8,-0.01,1504.4186,-0.360
1504.9,-0.01,1504.5199,-0.330
1505,-0.01,1504.6193,-0.260
1505.1,-0.01,1504.7193,-0.330
1505.2,-0.01,1504.8179,-0.300
1505.3,-0.01,1504.9165,-0.330
1505.4,-0.01,1505.0159,-0.390
1505.5,-0.01,1505.1159,-0.280
1505.6,-0.01,1505.2160,-0.360
1505.7,-0.01,1505.3139,-0.310
1505.8,-0.01,1505.4090,-0.300
1505.9,-0.01,1505.5074,-0.370
1506,-0.01,1505.6077,-0.280
1506.1,-0.01,1505.7073,-0.310
1506.2,-0.01,1505.8054,-0.350
1506.3,-0.01,1505.9029,-0.290
1506.4,-0.01,1505.9996,-0.350
1506.5,-0.01,1506.0989,-0.310
1506.6,-0.01,1506.1978,-0.320
1506.7,-0.01,1506.2981,-0.340
1506.8,-0.01,1506.3965,-0.280
1506.9,-0.01,1506.4936,-0.610
1507,-0.01,1506.5926,-0.210
1507.1,-0.01,1506.6934,-0.300
1507.2,-0.01,1506.8276,-0.250
1507.3,-0.01,1506.9272,-0.290
1507.4,-0.01,1507.0256,-0.310
1507.5,-0.01,1507.1247,-0.330
1507.6,-0.01,1507.2247,-0.200
1507.7,-0.01,1507.3252,-0.290
1507.8,-0.01,1507.4240,-0.510
1507.9,-0.01,1507.5233,-0.260
1508,-0.01,1507.6196,-0.340
1508.1,-0.01,1507.7200,-0.270
1508.2,-0.01,1507.8216,-0.310
1508.3,-0.01,1507.9220,-0.330
1508.4,-0.01,1508.0198,-0.300
1508.5,-0.01,1508.1180,-0.320
1508.6,-0.01,1508.2162,-0.380
1508.7,-0.01,1508.3181,-0.290
1508.8,-0.01,1508.4181,-0.280
1508.9,-0.01,1508.5194,-0.380
1509,-0.01,1508.6176,-0.280
1509.1,-0.01,1508.7160,-0.320
1509.2,-0.01,1508.8155,-0.330
1509.3,-0.01,1508.9166,-0.230
1509.4,-0.01,1509.0168,-0.370
1509.5,-0.01,1509.1146,-0.270
1509.6,-0.01,1509.2121,-0.300
1509.7,0,1509.3128,-0.320
1509.8,-0.01,1509.4129,-0.230
1509.9,-0.01,1509.5155,-0.240
1510,-0.01,1509.6167,-0.350
1510.1,-0.01,1509.7131,-0.260
1510.2,-0.01,1509.8110,-0.510
1510.3,-0.01,1509.9124,-0.320
1510.4,-0.01,1510.0140,-0.240
1510.5,-0.01,1510.1155,-0.290
1510.6,-0.01,1510.2155,-0.300
1510.7,-0.01,1510.3142,-0.270
1510.8,-0.01,1510.4141,-0.350
1510.9,-0.01,1510.5145,-0.230
1511,-0.01,1510.6140,-0.310
1511.1,-0.01,1510.7152,-0.330
1511.2,-0.01,1510.8146,-0.200
1511.3,-0.01,1510.9126,-0.390
1511.4,-0.01,1511.0121,-0.270
1511.5,-0.01,1511.1136,-0.260
1511.6,-0.01,1511.2146,-0.350
1511.7,-0.01,1511.3145,-0.240
1511.8,-0.01,1511.4123,-0.290
1511.9,-0.01,1511.5125,-0.340
1512,-0.01,1511.6138,-0.280
1512.1,-0.01,1511.7140,-0.250
1512.2,-0.01,1511.8142,-0.300
1512.3,-0.01,1511.9142,-0.280
1512.4,-0.01,1512.0113,-0.390
1512.5,-0.01,1512.1128,-0.240
1512.6,-0.01,1512.2126,-0.250
1512.7,-0.01,1512.3125,-0.360
1512.8,-0.01,1512.4137,-0.230
1512.9,-0.01,1512.5122,-0.310
1513,-0.01,1512.6097,-0.250
1513.1,-0.01,1512.7100,-0.270
1513.2,-0.01,1512.8105,-0.340
1513.3,-0.01,1512.9102,-0.280
1513.4,-0.01,1513.0074,-0.330
1513.5,-0.01,1513.1067,-0.300
1513.6,-0.01,1513.2063,-0.270
1513.7,-0.01,1513.3067,-0.300
1513.8,-0.01,1513.4068,-0.230
1513.9,-0.01,1513.5064,-0.260
1514,-0.01,1513.6027,-0.340
1514.1,-0.01,1513.7041,-0.220
1514.2,-0.01,1513.8061,-0.340
1514.3,-0.01,1513.9063,-0.290
1514.4,-0.01,1514.0069,-0.270
1514.5,-0.01,1514.1053,-0.290
1514.6,-0.01,1514.2034,-0.310
1514.7,-0.01,1514.3050,-0.310
1514.8,-0.01,1514.4062,-0.280
1514.9,-0.01,1514.5056,-0.240
1515,-0.01,1514.6038,-0.330
1515.1,-0.01,1514.7012,-0.230
1515.2,-0.01,1514.7992,-0.310
1515.3,-0.01,1514.9001,-0.230
1515.4,-0.01,1515.0024,-0.270
1515.5,-0.01,1515.1069,-0.310
1515.6,-0.01,1515.2056,-0.240
1515.7,-0.01,1515.3050,-0.330
1515.8,-0.01,1515.4046,-0.240
1515.9,-0.01,1515.5063,-0.210
1516,-0.01,1515.6057,-0.300
1516.1,-0.01,1515.7049,-0.220
1516.2,-0.01,1515.8035,-0.230
1516.3,-0.01,1515.9031,-0.340
1516.4,-0.01,1516.0074,-0.280
1516.5,-0.01,1516.1070,-0.270
1516.6,-0.01,1516.2084,-0.300
1516.7,-0.01,1516.3418,-0.220
1516.8,-0.01,1516.4406,-0.240
1516.9,-0.01,1516.5412,-0.320
1517,-0.01,1516.6411,-0.180
1517.1,-0.01,1516.7412,-0.240
1517.2,-0.01,1516.8390,-0.260
1517.3,-0.01,1516.9404,-0.280
1517.4,-0.01,1517.0398,-0.290
1517.5,-0.01,1517.1395,-0.210
1517.6,-0.01,1517.2405,-0.280
1517.7,-0.01,1517.3403,-0.290
1517.8,-0.01,1517.4390,-0.260
1517.9,-0.01,1517.5375,-0.200
1518,-0.01,1517.6376,-0.210
1518.1,-0.01,1517.7381,-0.490
1518.2,-0.01,1517.8412,-0.180
1518.3,-0.01,1517.9396,-0.260
1518.4,-0.01,1518.0372,-0.240
1518.5,-0.01,1518.1372,-0.260
1518.6,-0.01,1518.2358,-0.320
1518.7,-0.01,1518.3350,-0.180
1518.8,-0.01,1518.4335,-0.280
1518.9,-0.01,1518.5279,-0.230
1519,-0.01,1518.6267,-0.480
1519.1,-0.01,1518.7295,-0.250
1519.2,-0.01,1518.8286,-0.230
1519.3,0,1518.9287,-0.270
1519.4,-0.01,1519.0269,-0.210
1519.5,-0.01,1519.1244,-0.330
1519.6,-0.01,1519.2226,-0.200
1519.7,-0.01,1519.3237,-0.320
1519.8,-0.01,1519.4246,-0.220
1519.9,-0.01,1519.5251,-0.250
1520,-0.01,1519.6267,-0.310
1520.1,-0.01,1519.7263,-0.210
1520.2,-0.01,1519.8275,-0.280
1520.3,-0.01,1519.9269,-0.230
1520.4,-0.01,1520.0284,-0.240
1520.5,0,1520.1271,-0.320
1520.6,-0.01,1520.2258,-0.210
1520.7,-0.01,1520.3280,-0.270
1520.8,-0.01,1520.4275,-0.230
1520.9,-0.01,1520.5261,-0.260
1521,-0.01,1520.6295,-0.310
1521.1,-0.01,1520.7251,-0.160
1521.2,-0.01,1520.8257,-0.460
1521.3,-0.01,1520.9271,-0.240
1521.4,-0.01,1521.0265,-0.270
1521.5,-0.01,1521.1255,-0.230
1521.6,-0.01,1521.2237,-0.200
1521.7,-0.01,1521.3212,-0.260
1521.8,-0.01,1521.4229,-0.230
1521.9,-0.01,1521.5273,-0.310
1522,-0.01,1521.6273,-0.210
1522.1,-0.01,1521.7272,-0.170
1522.2,-0.01,1521.8240,-0.240
1522.3,-0.01,1521.9271,-0.230
1522.4,-0.01,1522.0278,-0.310
1522.5,-0.01,1522.1279,-0.190
1522.6,-0.01,1522.2273,-0.240
1522.7,-0.01,1522.3255,-0.230
1522.8,-0.01,1522.4262,-0.220
1522.9,-0.01,1522.5266,-0.350
1523,-0.01,1522.6262,-0.230
1523.1,-0.01,1522.7279,-0.230
1523.2,-0.01,1522.8256,-0.210
1523.3,0,1522.9218,-0.260
1523.4,-0.01,1523.0195,-0.230
1523.5,-0.01,1523.1213,-0.240
1523.6,-0.01,1523.2208,-0.240
1523.7,-0.01,1523.3233,-0.160
1523.8,-0.01,1523.4203,-0.260
1523.9,-0.01,1523.5205,-0.250
1524,-0.01,1523.6210,-0.330
1524.1,-0.01,1523.7205,-0.210
1524.2,-0.01,1523.8215,-0.260
1524.3,-0.01,1523.9212,-0.220
1524.4,-0.01,1524.0197,-0.270
1524.5,-0.01,1524.1184,-0.240
1524.6,-0.01,1524.2229,-0.180
1524.7,-0.01,1524.3210,-0.290
1524.8,-0.01,1524.4199,-0.190
1524.9,-0.01,1524.5165,-0.320
1525,-0.01,1524.6155,-0.180
1525.1,-0.01,1524.7153,-0.230
1525.2,-0.01,1524.8173,-0.250
1525.3,-0.01,1524.9159,-0.170
1525.4,-0.01,1525.0129,-0.240
1525.5,-0.01,1525.1107,-0.230
1525.6,-0.01,1525.2135,-0.280
1525.7,-0.01,1525.3120,-0.210
1525.8,-0.01,1525.4108,-0.500
1525.9,-0.01,1525.5143,-0.190
1526,-0.01,1525.6112,-0.290
1526.1,-0.01,1525.7079,-0.210
1526.2,-0.01,1525.8067,-0.330
1526.3,-0.01,1525.9112,-0.220
1526.4,-0.01,1526.0101,-0.190
1526.5,-0.01,1526.1078,-0.250
1526.6,-0.01,1526.2050,-0.200
1526.7,-0.01,1526.3077,-0.270
1526.8,-0.01,1526.4070,-0.200
1526.9,-0.01,1526.5053,-0.290
1527,-0.01,1526.6060,-0.150
1527.1,-0.01,1526.7034,-0.290
1527.2,-0.01,1526.8020,-0.180
1527.3,-0.01,1526.9025,-0.280
1527.4,-0.01,1527.0054,-0.210
1527.5,-0.01,1527.1049,-0.190
1527.6,-0.01,1527.2008,-0.300
1527.7,-0.01,1527.3022,-0.170
1527.8,-0.01,1527.4039,-0.310
1527.9,-0.01,1527.5038,-0.230
1528,-0.01,1527.6012,-0.340
1528.1,-0.01,1527.7008,-0.160
1528.2,-0.01,1527.7982,-0.480
1528.3,-0.01,1527.8989,-0.180
1528.4,-0.01,1528.0017,-0.240
1528.5,-0.01,1528.1022,-0.210
1528.6,-0.01,1528.2006,-0.230
1528.7,-0.01,1528.2977,-0.200
1528.8,-0.01,1528.3995,-0.190
1528.9,-0.01,1528.4985,-0.260
1529,-0.01,1528.5975,-0.190
1529.1,-0.01,1528.6949,-0.250
1529.2,-0.01,1528.7961,-0.210
1529.3,-0.01,1528.8946,-0.260
1529.4,-0.01,1528.9946,-0.180
1529.5,-0.01,1529.0977,-0.270
1529.6,-0.01,1529.1972,-0.190
1529.7,-0.01,1529.2966,-0.180
1529.8,-0.01,1529.3949,-0.210
1529.9,-0.01,1529.4984,-0.150
1530,-0.01,1529.5984,-0.230
1530.1,-0.01,1529.6980,-0.210
1530.2,-0.01,1529.8013,-0.290
1530.3,-0.01,1529.9018,-0.190
1530.4,-0.01,1530.0020,-0.190
1530.5,-0.01,1530.1005,-0.190
1530.6,-0.01,1530.2035,-0.140
1530.7,-0.01,1530.3021,-0.250
1530.8,0,1530.4013,-0.240
1530.9,-0.01,1530.5044,-0.500
1531,-0.01,1530.6026,-0.180
1531.1,-0.01,1530.7019,-0.480
1531.2,0,1530.8017,-0.100
1531.3,-0.01,1530.9040,-0.210
1531.4,-0.01,1531.0004,-0.200
1531.5,-0.01,1531.0988,-0.280
1531.6,-0.01,1531.1998,-0.130
1531.7,-0.01,1531.3036,-0.200
1531.8,-0.01,1531.4031,-0.170
1531.9,-0.01,1531.5017,-0.150
1532,-0.01,1531.6036,-0.230
1532.1,-0.01,1531.7047,-0.130
1532.2,-0.01,1531.8038,-0.460
1532.3,-0.01,1531.9035,-0.150
1532.4,-0.01,1532.0080,-0.190
1532.5,-0.01,1532.1058,-0.160
1532.6,-0.01,1532.2036,-0.250
1532.7,-0.01,1532.3071,-0.230
1532.8,-0.01,1532.4071,-0.190
1532.9,-0.01,1532.5062,-0.190
1533,-0.01,1532.6026,-0.210
1533.1,-0.01,1532.7061,-0.190
1533.2,-0.01,1532.8071,-0.100
1533.3,-0.01,1532.9063,-0.220
1533.4,-0.01,1533.0059,-0.220
1533.5,-0.01,1533.1044,-0.270
1533.6,-0.01,1533.2024,-0.130
1533.7,-0.01,1533.3029,-0.320
1533.8,-0.01,1533.4060,-0.150
1533.9,-0.01,1533.5057,-0.210
1534,-0.01,1533.6040,-0.170
1534.1,-0.01,1533.7009,-0.260
1534.2,-0.01,1533.8044,-0.130
1534.3,-0.01,1533.9060,-0.210
1534.4,-0.01,1534.0049,-0.140
1534.5,-0.01,1534.1054,-0.190
1534.6,-0.01,1534.2044,-0.170
1534.7,-0.01,1534.3018,-0.180
1534.8,-0.01,1534.4028,-0.170
1534.9,-0.01,1534.5068,-0.180
1535,-0.01,1534.6077,-0.250
1535.1,-0.01,1534.7062,-0.130
1535.2,-0.01,1534.8427,-0.210
1535.3,-0.01,1534.9426,-0.130
1535.4,-0.01,1535.0415,-0.140
1535.5,-0.01,1535.1449,-0.210
1535.6,-0.01,1535.2443,-0.160
1535.7,-0.01,1535.3416,-0.210
1535.8,-0.01,1535.4448,-0.130
1535.9,-0.01,1535.5434,-0.200
1536,-0.01,1535.6428,-0.130
1536.1,-0.01,1535.7466,-0.200
1536.2,-0.01,1535.8448,-0.100
1536.3,-0.01,1535.9439,-0.480
1536.4,-0.01,1536.0475,-0.160
1536.5,-0.01,1536.1492,-0.170
1536.6,-0.01,1536.2491,-0.190
1536.7,-0.01,1536.3527,-0.190
1536.8,-0.01,1536.4499,-0.180
1536.9,-0.01,1536.5493,-0.150
1537,0,1536.6520,-0.190
1537.1,-0.01,1536.7515,-0.130
1537.2,-0.01,1536.8520,-0.250
1537.3,-0.01,1536.9552,-0.120
1537.4,-0.01,1537.0532,-0.230
1537.5,-0.01,1537.1532,-0.170
1537.6,-0.01,1537.2581,-0.230
1537.7,-0.01,1537.3584,-0.160
1537.8,-0.01,1537.4561,-0.230
1537.9,-0.01,1537.5577,-0.160
1538,-0.01,1537.6573,-0.130
1538.1,-0.01,1537.7567,-0.160
1538.2,-0.01,1537.8593,-0.180
1538.3,-0.01,1537.9580,-0.150
1538.4,-0.01,1538.0546,-0.160
1538.5,-0.01,1538.1548,-0.130
1538.6,-0.01,1538.2537,-0.290
1538.7,-0.01,1538.3534,-0.130
1538.8,-0.01,1538.4552,-0.210
1538.9,-0.01,1538.5544,-0.130
1539,-0.01,1538.6509,-0.460
1539.1,-0.01,1538.7525,-0.120
1539.2,-0.01,1538.8535,-0.230
1539.3,-0.01,1538.9524,-0.100
1539.4,-0.01,1539.0545,-0.160
1539.5,-0.01,1539.1509,-0.150
1539.6,-0.01,1539.2508,-0.380
1539.7,-0.01,1539.3543,-0.110
1539.8,-0.01,1539.4528,-0.210
1539.9,-0.01,1539.5518,-0.100
1540,-0.01,1539.6538,-0.140
1540.1,-0.01,1539.7521,-0.130
1540.2,-0.01,1539.8519,-0.220
1540.3,-0.01,1539.9510,-0.120
1540.4,-0.01,1540.0528,-0.230
1540.5,-0.01,1540.1509,-0.120
1540.6,-0.01,1540.2471,-0.170
1540.7,-0.01,1540.3489,-0.120
1540.8,-0.01,1540.4507,-0.360
1540.9,-0.01,1540.5483,-0.110
1541,-0.01,1540.6498,-0.260
1541.1,-0.01,1540.7468,-0.040
1541.2,-0.01,1540.8424,-0.170
1541.3,-0.01,1540.9472,-0.160
1541.4,-0.01,1541.0462,-0.150
1541.5,-0.01,1541.1477,-0.110
1541.6,-0.01,1541.2499,-0.220
1541.7,-0.01,1541.3460,-0.150
1541.8,-0.01,1541.4441,-0.050
1541.9,-0.01,1541.5476,-0.140
1542,-0.01,1541.6471,-0.170
1542.1,-0.01,1541.7452,-0.110
1542.2,-0.01,1541.8479,-0.120
1542.3,-0.01,1541.9454,-0.090
1542.4,-0.01,1542.0446,-0.110
1542.5,-0.01,1542.1469,-0.160
1542.6,-0.01,1542.2460,-0.120
1542.7,-0.01,1542.3449,-0.160
1542.8,-0.01,1542.4456,-0.110
1542.9,-0.01,1542.5457,-0.060
1543,-0.01,1542.6438,-0.080
1543.1,-0.01,1542.7452,-0.170
1543.2,-0.01,1542.8447,-0.080
1543.3,-0.01,1542.9410,-0.220
1543.4,-0.01,1543.0430,-0.130
1543.5,-0.01,1543.1413,-0.210
1543.6,-0.01,1543.2379,-0.150
1543.7,-0.01,1543.3419,-0.180
1543.8,-0.01,1543.4383,-0.150
1543.9,-0.01,1543.5369,-0.090
1544,-0.01,1543.6409,-0.140
1544.1,-0.01,1543.7398,-0.130
1544.2,-0.01,1543.8373,-0.130
1544.3,-0.01,1543.9375,-0.130
1544.4,-0.01,1544.0347,-0.400
1544.5,-0.01,1544.1317,-0.100
1544.6,-0.01,1544.2348,-0.360
1544.7,-0.01,1544.3328,-0.080
1544.8,-0.01,1544.4306,-0.140
1544.9,-0.01,1544.5285,-0.170
1545,-0.01,1544.6257,-0.050
1545.1,-0.01,1544.7261,-0.190
1545.2,-0.01,1544.8276,-0.080
1545.3,0,1544.9251,-0.410
1545.4,-0.01,1545.0257,-0.120
1545.5,-0.01,1545.1196,-0.130
1545.6,-0.01,1545.2201,-0.130
1545.7,-0.01,1545.3195,-0.120
1545.8,-0.01,1545.4199,-0.120
1545.9,-0.01,1545.5164,-0.120
1546,-0.01,1545.6151,-0.180
1546.1,-0.01,1545.7103,-0.150
1546.2,-0.01,1545.8123,-0.150
1546.3,-0.01,1545.9090,-0.180
1546.4,-0.01,1546.0088,-0.060
1546.5,-0.01,1546.1038,-0.220
1546.6,-0.01,1546.2051,-0.100
1546.7,-0.01,1546.3044,-0.180
1546.8,-0.01,1546.4020,-0.120
1546.9,-0.01,1546.5032,-0.060
1547,-0.01,1546.6004,-0.180
1547.1,-0.01,1546.6993,-0.100
1547.2,-0.01,1546.7985,-0.260
1547.3,-0.01,1546.9022,-0.130
1547.4,-0.01,1546.9996,-0.380
1547.5,-0.01,1547.0995,-0.130
1547.6,-0.01,1547.1956,-0.190
1547.7,-0.01,1547.2970,-0.110
1547.8,-0.01,1547.3971,-0.140
1547.9,-0.01,1547.4995,-0.110
1548,-0.01,1547.5981,-0.130
1548.1,-0.01,1547.6998,-0.120
1548.2,-0.01,1547.7968,-0.130
1548.3,-0.01,1547.8995,-0.170
1548.4,-0.01,1547.9973,-0.080
1548.5,-0.01,1548.0964,-0.400
1548.6,-0.01,1548.1994,-0.100
1548.7,0,1548.2967,-0.240
1548.8,-0.01,1548.4004,-0.070
1548.9,-0.01,1548.5000,-0.190
1549,-0.01,1548.6043,-0.080
1549.1,-0.01,1548.7044,-0.250
1549.2,-0.01,1548.8064,-0.120
1549.3,-0.01,1548.9060,-0.360
1549.4,-0.01,1549.0087,-0.080
1549.5,-0.01,1549.1072,-0.210
1549.6,-0.01,1549.2115,-0.080
1549.7,-0.01,1549.3089,-0.220
1549.8,-0.01,1549.4111,-0.100
1549.9,-0.01,1549.5097,-0.190
1550,-0.01,1549.6117,-0.130
1550.1,-0.01,1549.7105,-0.150
1550.2,-0.01,1549.8094,-0.130
1550.3,-0.01,1549.9087,-0.140
1550.4,-0.01,1550.0085,-0.190
1550.5,-0.01,1550.1113,-0.110
1550.6,-0.01,1550.2092,-0.220
1550.7,-0.01,1550.3098,-0.050
1550.8,-0.01,1550.4067,-0.160
1550.9,-0.01,1550.5101,-0.100
1551,-0.01,1550.6098,-0.120
1551.1,-0.01,1550.7127,-0.080
1551.2,-0.01,1550.8119,-0.110
1551.3,-0.01,1550.9132,-0.080
1551.4,-0.01,1551.0084,-0.100
1551.5,-0.01,1551.1107,-0.100
1551.6,-0.01,1551.2109,-0.120
1551.7,-0.01,1551.3097,-0.400
1551.8,-0.01,1551.4124,-0.040
1551.9,-0.01,1551.5081,-0.100
1552,-0.01,1551.6091,-0.080
1552.1,-0.01,1551.7080,-0.070
1552.2,-0.01,1551.8104,-0.060
1552.3,-0.01,1551.9072,-0.070
1552.4,-0.01,1552.0073,-0.160
1552.5,-0.01,1552.1054,-0.040
1552.6,-0.01,1552.2083,-0.370
1552.7,-0.01,1552.3078,-0.090
1552.8,-0.01,1552.4090,-0.160
1552.9,-0.01,1552.5061,-0.100
1553,-0.01,1552.6053,-0.040
1553.1,-0.01,1552.7043,-0.160
1553.2,-0.01,1552.8087,-0.070
1553.3,-0.01,1552.9077,-0.160
1553.4,-0.01,1553.0062,-0.010
1553.5,-0.01,1553.1059,-0.150
1553.6,-0.01,1553.2038,-0.040
1553.7,-0.01,1553.3087,-0.160
1553.8,0,1553.4086,-0.150
1553.9,-0.01,1553.5092,-0.040
1554,-0.01,1553.6069,-0.160
1554.1,-0.01,1553.7073,-0.080
1554.2,-0.01,1553.8058,-0.200
1554.3,-0.01,1553.9089,-0.080
1554.4,-0.01,1554.0085,-0.180
1554.5,-0.01,1554.1107,-0.060
1554.6,-0.01,1554.2079,-0.130
1554.7,-0.01,1554.3098,-0.060
1554.8,-0.01,1554.4093,-0.060
1554.9,-0.01,1554.5115,-0.110
1555,-0.01,1554.6099,-0.080
1555.1,-0.01,1554.7114,-0.160
1555.2,-0.01,1554.8087,-0.110
1555.3,-0.01,1554.9108,-0.120
1555.4,-0.01,1555.0098,-0.050
1555.5,-0.01,1555.1132,-0.120
1555.6,-0.01,1555.2158,-0.060
1555.7,-0.01,1555.3141,-0.070
1555.8,-0.01,1555.4173,-0.080
1555.9,0,1555.5173,-0.060
1556,-0.01,1555.6197,-0.060
1556.1,-0.01,1555.7212,-0.110
1556.2,-0.01,1555.8176,-0.400
1556.3,-0.01,1555.9206,-0.050
1556.4,-0.01,1556.0196,-0.130
1556.5,-0.01,1556.1227,-0.100
1556.6,-0.01,1556.2254,-0.170
1556.7,-0.01,1556.3214,-0.100
1556.8,-0.01,1556.4242,-0.120
1556.9,-0.01,1556.5216,-0.170
1557,-0.01,1556.6239,-0.020
1557.1,-0.01,1556.7254,-0.110
1557.2,-0.01,1556.8227,-0.050
1557.3,-0.01,1556.9245,-0.120
1557.4,-0.01,1557.0241,-0.090
1557.5,-0.01,1557.1257,-0.080
1557.6,-0.01,1557.2280,-0.090
1557.7,-0.01,1557.3248,-0.040
1557.8,-0.01,1557.4219,-0.100
1557.9,-0.01,1557.5202,-0.110
1558,-0.01,1557.6228,-0.100
1558.1,-0.01,1557.7227,-0.030
1558.2,-0.01,1557.8224,-0.020
1558.3,-0.01,1557.9236,-0.200
1558.4,-0.01,1558.0206,-0.040
1558.5,-0.01,1558.1213,-0.090
1558.6,-0.01,1558.2247,0.0000
1558.7,-0.01,1558.3226,-0.050
1558.8,-0.01,1558.4237,-0.090
1558.9,-0.01,1558.5195,-0.040
1559,-0.01,1558.6215,-0.090
1559.1,-0.01,1558.7246,-0.060
1559.2,-0.01,1558.8239,-0.060
1559.3,-0.01,1558.9258,-0.000
1559.4,-0.01,1559.0209,-0.030
1559.5,-0.01,1559.1212,-0.170
1559.6,-0.01,1559.2254,-0.040
1559.7,-0.01,1559.3236,-0.100
1559.8,-0.01,1559.4248,-0.020
1559.9,-0.01,1559.5194,-0.060
1560,-0.01,1559.6181,-0.120
1560.1,-0.01,1559.7211,-0.010
1560.2,-0.01,1559.8227,-0.060
1560.3,-0.01,1559.9254,0.0100
1560.4,-0.01,1560.0198,-0.030
1560.5,-0.01,1560.1182,-0.140
1560.6,-0.01,1560.2206,-0.020
1560.7,-0.01,1560.3203,0.0300
1560.8,-0.01,1560.4231,-0.030
1560.9,-0.01,1560.5196,0.0600
1561,-0.01,1560.6190,-0.100
1561.1,-0.01,1560.7218,0.0500
1561.2,-0.01,1560.8210,-0.090
1561.3,-0.01,1560.9230,-0.000
1561.4,-0.01,1561.0196,0.0100
1561.5,-0.01,1561.1198,-0.080
1561.6,0,1561.2192,-0.020
1561.7,-0.01,1561.3170,-0.040
1561.8,-0.01,1561.4178,-0.010
1561.9,-0.01,1561.5169,-0.000
1562,-0.01,1561.6178,-0.050
1562.1,-0.01,1561.7185,0.0000
1562.2,-0.01,1561.8176,-0.030
1562.3,-0.01,1561.9193,-0.040
1562.4,0,1562.0165,0.0300
1562.5,-0.01,1562.1173,-0.080
1562.6,-0.01,1562.2165,0.0300
1562.7,0,1562.3141,0.0600
1562.8,-0.01,1562.4156,-0.040
1562.9,-0.01,1562.5123,0.0800
1563,-0.01,1562.6152,-0.070
1563.1,-0.01,1562.7168,0.0000
1563.2,-0.01,1562.8130,0.0200
1563.3,-0.01,1562.9147,-0.060
1563.4,-0.01,1563.0124,0.0100
1563.5,-0.01,1563.1134,-0.030
1563.6,-0.01,1563.2133,-0.010
1563.7,-0.01,1563.3093,0.0100
1563.8,-0.01,1563.4089,-0.050
1563.9,-0.01,1563.5069,-0.020
1564,-0.01,1563.6075,0.0500
1564.1,-0.01,1563.7076,-0.040
1564.2,-0.01,1563.8016,0.0100
1564.3,-0.01,1563.9026,-0.050
1564.4,-0.01,1563.9999,-0.040
1564.5,-0.01,1564.1005,-0.040
1564.6,-0.01,1564.2009,0.0300
1564.7,-0.01,1564.2960,-0.270
1564.8,-0.01,1564.3944,0.0000
1564.9,-0.01,1564.4894,0.0400
1565,-0.01,1564.5901,-0.070
1565.1,-0.01,1564.6909,0.0400
1565.2,-0.01,1564.7909,-0.020
1565.3,-0.01,1564.8903,-0.040
1565.4,-0.01,1564.9864,0.0400
1565.5,-0.01,1565.0888,0.0300
1565.6,-0.01,1565.1880,0.0300
1565.7,-0.01,1565.2889,0.0300
1565.8,-0.01,1565.3869,-0.090
1565.9,-0.01,1565.4874,0.0400
1566,-0.01,1565.5910,-0.020
1566.1,-0.01,1565.6873,-0.040
1566.2,-0.01,1565.7884,0.0700
1566.3,-0.01,1565.8866,0.0500
1566.4,-0.01,1565.9858,0.0100
1566.5,-0.01,1566.0889,0.0300
1566.6,-0.01,1566.1895,-0.070
1566.7,-0.01,1566.2849,0.0400
1566.8,-0.01,1566.3856,0.0400
1566.9,-0.01,1566.4841,-0.050
1567,-0.01,1566.5841,0.1200
1567.1,-0.01,1566.6849,0.0300
1567.2,-0.01,1566.7864,0.0800
1567.3,-0.01,1566.8876,0.0000
1567.4,-0.01,1566.9837,-0.030
1567.5,-0.01,1567.0847,0.0700
1567.6,-0.01,1567.1867,-0.020
1567.7,-0.01,1567.2872,0.0200
1567.8,-0.01,1567.3891,0.0900
1567.9,-0.01,1567.4896,-0.010
1568,-0.01,1567.5905,0.0300
1568.1,-0.01,1567.6901,0.0300
1568.2,-0.01,1567.7935,0.0600
1568.3,-0.01,1567.8942,0.0600
1568.4,-0.01,1567.9958,0.0500
1568.5,-0.01,1568.0961,0.1100
1568.6,-0.01,1568.1992,-0.180
1568.7,-0.01,1568.2967,0.0900
1568.8,-0.01,1568.3990,0.0800
1568.9,-0.01,1568.5011,0.0700
1569,-0.01,1568.6013,0.0800
1569.1,-0.01,1568.7026,-0.220
1569.2,-0.01,1568.8036,0.1000
1569.3,-0.01,1568.9056,0.0800
1569.4,-0.01,1569.0029,0.0400
1569.5,-0.01,1569.1020,0.1100
1569.6,-0.01,1569.2043,0.0600
1569.7,-0.01,1569.3067,0.0800
1569.8,-0.01,1569.4084,0.0300
1569.9,-0.01,1569.5096,0.0500
1570,-0.01,1569.6103,0.0800
1570.1,-0.01,1569.7063,0.0200
1570.2,-0.01,1569.8084,0.0600
1570.3,-0.01,1569.9084,0.1100
1570.4,-0.01,1570.0097,-0.020
1570.5,-0.01,1570.1089,0.0800
1570.6,-0.01,1570.2075,0.1000
1570.7,-0.01,1570.3068,-0.210
1570.8,-0.01,1570.4088,0.1100
1570.9,-0.01,1570.5099,0.0600
1571,-0.01,1570.6117,0.0900
1571.1,-0.01,1570.7103,0.1200
1571.2,-0.01,1570.8094,0.0300
1571.3,-0.01,1570.9117,0.1300
1571.4,-0.01,1571.0101,0.0800
1571.5,-0.01,1571.1096,-0.010
1571.6,-0.01,1571.2089,0.1300
1571.7,-0.01,1571.3096,0.1000
1571.8,-0.01,1571.4113,0.0700
1571.9,-0.01,1571.5131,0.1200
1572,0,1571.6116,0.0500
1572.1,-0.01,1571.7077,0.0100
1572.2,-0.01,1571.8068,0.1400
1572.3,-0.01,1571.9095,0.0500
1572.4,-0.01,1572.0121,0.1100
1572.5,-0.01,1572.1143,0.0400
1572.6,-0.01,1572.2141,0.0300
1572.7,0,1572.3083,0.0800
1572.8,-0.01,1572.4097,0.1400
1572.9,-0.01,1572.5139,0.0500
1573,-0.01,1572.6159,0.1500
1573.1,-0.01,1572.7152,0.0100
1573.2,-0.01,1572.8127,0.1100
1573.3,-0.01,1572.9128,0.1100
1573.4,-0.01,1573.0123,0.0500
1573.5,-0.01,1573.1148,0.1700
1573.6,0,1573.2151,0.0900
1573.7,-0.01,1573.3156,0.0400
1573.8,-0.01,1573.4167,0.0800
1573.9,-0.01,1573.5177,0.0000
1574,-0.01,1573.6182,0.0600
1574.1,-0.01,1573.7146,0.1500
1574.2,-0.01,1573.8166,0.0500
1574.3,-0.01,1573.9140,0.0400
1574.4,-0.01,1574.0159,0.1300
1574.5,-0.01,1574.1175,-0.010
1574.6,-0.01,1574.2201,0.1500
1574.7,-0.01,1574.3190,0.1500
1574.8,-0.01,1574.4192,0.0300
1574.9,-0.01,1574.5199,0.1100
1575,-0.01,1574.6215,0.0900
